REQUEST         124001   20240609     135847   20240529          3    0  0    0
ENTRY            30092   20150407   20150604   20150513       316930092000    1
SUBENT        30092001   20150407   20150604   20150513       316930092001    1
BIB                 12         42                                 30092001    2
INSTITUTE  (3INDTRM)                                              30092001    3
REFERENCE  (C,66PARIS,1,233,1966) inverse reaction, tables        30092001    4
           (J,PR,156,1187,1967)cross section + width,tbls+graphs  30092001    5
           (R,AEET-264,1966) same as 66Paris,1,233 1966           30092001    6
           (P,AEET-228,1965) table superseded                     30092001    7
           (P,AEET-267,1966) peak cross section and widths.       30092001    8
AUTHOR     (A.S.Divatia, K.K.Sekharan, M.K.Mehta, S.S.Kerekate,   30092001    9
            K.K.Nambiar)                                          30092001   10
TITLE      O-16(n,alfa)C-13 cross-sections from the               30092001   11
           C-13(alfa,n)O-16  reaction                             30092001   12
FACILITY   (VDG) Van de Graaff                                    30092001   13
            Relative error in incident alfa-particle energy       30092001   14
            is estimated to be +-3 keV whereas incident beam was  30092001   15
            monitored by current integrator with an accuracy      30092001   16
            of +-2%                                               30092001   17
SAMPLE     Approximately 30% enriched C-13 target deposited       30092001   18
           on 0.25 mm - thick tantalum backing, target thickness  30092001   19
           =31. keV for alfa particles of 3.1 MeV energy          30092001   20
METHOD     According to the reciprocity theorem the actually      30092001   21
           measured C-13(alfa,n)O-16 cross section is converted   30092001   22
           to the O-16(n,alfa)C-13 cross section                  30092001   23
DETECTOR   (BF3) 4 Pi geometry neutron counter consisting of a    30092001   24
            bf3 counter-paraffin assembly, efficiency in percent  30092001   25
            versus neutron energy (fig.1 of Phys.Rev. 156, 1187   30092001   26
            (1967) )  obtained from measurement of neutron yields 30092001   27
            from Li-7(p,n)Be-7 reaction                           30092001   28
            Reaction 3-Li-7(p,n)4-Be-7 for detector calibration   30092001   29
PART-DET   (N) neutrons, C-13(alfa,n)O-16 reaction measured       30092001   30
ANALYSIS   (DTBAL) inverse reaction measured                      30092001   31
ERR-ANALYS The factors contributing to the error in the cross     30092001   32
           section are the following                              30092001   33
           1.) The number of C-13 nuclei                          30092001   34
           2.) The error in the alfa current integration          30092001   35
           3.) The error in the counter efficiency (estimated     30092001   36
               to be 12%)                                         30092001   37
HISTORY    (19670223R)  letter from M.Balakrishnan                30092001   38
           (19670912C)  compiled into Dastar                      30092001   39
           (19701216T)  converted from Dastar-00222               30092001   40
           (19701230A)  Subents 009 and 010 added.                30092001   41
           (20080215S) Dataset was restored.                      30092001   42
           (20150402A) VS. HISTORY added to 001.                  30092001   43
                       002, 003: SF5=PAR, SF9=DERIV, E-LVL added. 30092001   44
ENDBIB              42                                            30092001   45
NOCOMMON             0          0                                 30092001   46
ENDSUBENT           45                                            3009200199999
SUBENT        30092002   20150407   20150604   20150513       316930092002    1
BIB                  5         14                                 30092002    2
REACTION   (8-O-16(N,A)6-C-13,PAR,SIG,,,DERIV)                    30092002    3
COMMENT    Peak cross sections given in accession-number 30092.00330092002    4
STATUS     (TABLE) data from private communication from           30092002    5
            M.Balakrishnan, 23 feb 67                             30092002    6
           (DEP,D6089002) C-13(alfa,n)O-16 data                   30092002    7
HISTORY    (19670223R)  letter from M.Balakrishnan                30092002    8
           (19670912C)  compiled into Dastar                      30092002    9
           (19701216T)  converted from Dastar-00222               30092002   10
           (20080215S) Dataset was restored.                      30092002   11
           (20150402A) VS. SF5=PAR, SF9=DERIV, E-LVL added.       30092002   12
ERR-ANALYS (DATA-ERR) Overall  error of cross section estimated to30092002   13
           be 20% according to Phys.Rev. Vol 156,1187(1967)       30092002   14
           whereas in earlier publications the error is estimated 30092002   15
           to be 15% only                                         30092002   16
ENDBIB              14                                            30092002   17
COMMON               2          3                                 30092002   18
DATA-ERR   E-LVL                                                  30092002   19
PER-CENT   MEV                                                    30092002   20
 2.0000E+01   0.                                                  30092002   21
ENDCOMMON            3                                            30092002   22
DATA                 2        406                                 30092002   23
EN         DATA                                                   30092002   24
MEV        MB                                                     30092002   25
3.916      15.6                                                   30092002   26
3.921      16.3                                                   30092002   27
3.925      16.8                                                   30092002   28
3.930      17.4                                                   30092002   29
3.935      18.7                                                   30092002   30
3.939      19.4                                                   30092002   31
3.943      20.5                                                   30092002   32
3.948      21.6                                                   30092002   33
3.953      22.8                                                   30092002   34
3.958      23.9                                                   30092002   35
3.963      24.7                                                   30092002   36
3.968      26.6                                                   30092002   37
3.973      29.1                                                   30092002   38
3.978      29.5                                                   30092002   39
3.982      31.2                                                   30092002   40
3.986      33.4                                                   30092002   41
3.991      35.9                                                   30092002   42
3.996      37.1                                                   30092002   43
4.001      39.1                                                   30092002   44
4.006      42.5                                                   30092002   45
4.011      45.1                                                   30092002   46
4.016      47.9                                                   30092002   47
4.021      50.9                                                   30092002   48
4.025      53.2                                                   30092002   49
4.030      56.2                                                   30092002   50
4.035      58.9                                                   30092002   51
4.040      61.1                                                   30092002   52
4.045      63.4                                                   30092002   53
4.050      63.1                                                   30092002   54
4.055      62.6                                                   30092002   55
4.060      61.7                                                   30092002   56
4.064      60.7                                                   30092002   57
4.069      59.2                                                   30092002   58
4.074      58.2                                                   30092002   59
4.079      57.7                                                   30092002   60
4.084      55.6                                                   30092002   61
4.089      55.5                                                   30092002   62
4.094      54.1                                                   30092002   63
4.099      52.8                                                   30092002   64
4.104      52.3                                                   30092002   65
4.109      52.3                                                   30092002   66
4.114      52.4                                                   30092002   67
4.119      57.3                                                   30092002   68
4.124      59.3                                                   30092002   69
4.129      61.6                                                   30092002   70
4.134      66.4                                                   30092002   71
4.139      70.7                                                   30092002   72
4.144      76.2                                                   30092002   73
4.149      81.8                                                   30092002   74
4.154      88.2                                                   30092002   75
4.159      94.3                                                   30092002   76
4.164      99.7                                                   30092002   77
4.169      103.2                                                  30092002   78
4.174      105.8                                                  30092002   79
4.179      106.5                                                  30092002   80
4.184      107.2                                                  30092002   81
4.189      105.9                                                  30092002   82
4.195      103.5                                                  30092002   83
4.199      99.3                                                   30092002   84
4.205      96.0                                                   30092002   85
4.210      91.7                                                   30092002   86
4.216      88.3                                                   30092002   87
4.221      85.0                                                   30092002   88
4.226      83.1                                                   30092002   89
4.231      81.0                                                   30092002   90
4.237      81.4                                                   30092002   91
4.241      79.0                                                   30092002   92
4.247      77.9                                                   30092002   93
4.252      76.0                                                   30092002   94
4.257      76.3                                                   30092002   95
4.262      75.5                                                   30092002   96
4.267      76.6                                                   30092002   97
4.272      78.3                                                   30092002   98
4.277      80.5                                                   30092002   99
4.283      83.4                                                   30092002  100
4.288      87.2                                                   30092002  101
4.294      90.9                                                   30092002  102
4.299      94.7                                                   30092002  103
4.305      96.4                                                   30092002  104
4.310      98.0                                                   30092002  105
4.315      101.9                                                  30092002  106
4.320      99.1                                                   30092002  107
4.326      97.2                                                   30092002  108
4.331      92.5                                                   30092002  109
4.336      86.1                                                   30092002  110
4.341      80.8                                                   30092002  111
4.346      76.5                                                   30092002  112
4.351      72.1                                                   30092002  113
4.357      64.4                                                   30092002  114
4.362      58.0                                                   30092002  115
4.367      52.8                                                   30092002  116
4.372      49.3                                                   30092002  117
4.377      45.9                                                   30092002  118
4.382      42.6                                                   30092002  119
4.388      40.6                                                   30092002  120
4.393      38.4                                                   30092002  121
4.398      36.4                                                   30092002  122
4.404      34.8                                                   30092002  123
4.409      33.3                                                   30092002  124
4.414      32.2                                                   30092002  125
4.419      31.2                                                   30092002  126
4.424      30.6                                                   30092002  127
4.429      29.5                                                   30092002  128
4.434      29.5                                                   30092002  129
4.439      31.3                                                   30092002  130
4.445      32.0                                                   30092002  131
4.450      35.3                                                   30092002  132
4.455      45.5                                                   30092002  133
4.461      54.9                                                   30092002  134
4.467      64.8                                                   30092002  135
4.473      67.4                                                   30092002  136
4.478      61.5                                                   30092002  137
4.483      54.9                                                   30092002  138
4.488      46.2                                                   30092002  139
4.493      39.5                                                   30092002  140
4.498      35.6                                                   30092002  141
4.503      31.8                                                   30092002  142
4.509      30.5                                                   30092002  143
4.514      32.7                                                   30092002  144
4.519      48.0                                                   30092002  145
4.524      65.2                                                   30092002  146
4.530      70.8                                                   30092002  147
4.535      65.0                                                   30092002  148
4.541      56.1                                                   30092002  149
4.547      43.7                                                   30092002  150
4.552      36.6                                                   30092002  151
4.558      31.8                                                   30092002  152
4.563      29.7                                                   30092002  153
4.568      28.1                                                   30092002  154
4.573      27.9                                                   30092002  155
4.579      30.9                                                   30092002  156
4.584      37.5                                                   30092002  157
4.590      51.8                                                   30092002  158
4.595      59.1                                                   30092002  159
4.601      60.4                                                   30092002  160
4.606      51.3                                                   30092002  161
4.612      47.4                                                   30092002  162
4.617      56.3                                                   30092002  163
4.624      100.0                                                  30092002  164
4.629      130.9                                                  30092002  165
4.635      131.6                                                  30092002  166
4.640      118.3                                                  30092002  167
4.646      91.4                                                   30092002  168
4.651      66.4                                                   30092002  169
4.656      51.9                                                   30092002  170
4.662      39.6                                                   30092002  171
4.668      31.8                                                   30092002  172
4.674      28.7                                                   30092002  173
4.680      27.2                                                   30092002  174
4.686      26.2                                                   30092002  175
4.692      24.8                                                   30092002  176
4.698      23.7                                                   30092002  177
4.703      26.2                                                   30092002  178
4.709      26.3                                                   30092002  179
4.715      26.3                                                   30092002  180
4.721      25.8                                                   30092002  181
4.727      25.8                                                   30092002  182
4.733      26.1                                                   30092002  183
4.739      27.3                                                   30092002  184
4.745      25.5                                                   30092002  185
4.751      27.6                                                   30092002  186
4.757      26.5                                                   30092002  187
4.764      27.2                                                   30092002  188
4.770      28.8                                                   30092002  189
4.776      28.8                                                   30092002  190
4.782      31.6                                                   30092002  191
4.788      32.4                                                   30092002  192
4.794      34.3                                                   30092002  193
4.800      35.2                                                   30092002  194
4.806      39.9                                                   30092002  195
4.811      54.7                                                   30092002  196
4.817      61.8                                                   30092002  197
4.823      71.5                                                   30092002  198
4.829      78.9                                                   30092002  199
4.836      83.9                                                   30092002  200
4.842      88.3                                                   30092002  201
4.848      86.9                                                   30092002  202
4.853      86.2                                                   30092002  203
4.860      83.6                                                   30092002  204
4.866      75.4                                                   30092002  205
4.872      54.7                                                   30092002  206
4.879      51.6                                                   30092002  207
4.885      50.4                                                   30092002  208
4.891      50.5                                                   30092002  209
4.897      46.7                                                   30092002  210
4.902      50.8                                                   30092002  211
4.908      49.6                                                   30092002  212
4.914      55.2                                                   30092002  213
4.920      57.0                                                   30092002  214
4.926      58.9                                                   30092002  215
4.932      57.3                                                   30092002  216
4.938      58.0                                                   30092002  217
4.944      60.0                                                   30092002  218
4.951      61.9                                                   30092002  219
4.957      66.0                                                   30092002  220
4.963      67.5                                                   30092002  221
4.969      71.2                                                   30092002  222
4.975      76.8                                                   30092002  223
4.981      81.6                                                   30092002  224
4.987      96.2                                                   30092002  225
4.993      110.3                                                  30092002  226
4.999      115.6                                                  30092002  227
5.005      122.3                                                  30092002  228
5.012      121.0                                                  30092002  229
5.018      141.5                                                  30092002  230
5.025      147.5                                                  30092002  231
5.032      157.2                                                  30092002  232
5.039      173.6                                                  30092002  233
5.045      178.3                                                  30092002  234
5.051      183.0                                                  30092002  235
5.057      165.6                                                  30092002  236
5.063      164.0                                                  30092002  237
5.070      147.9                                                  30092002  238
5.076      150.4                                                  30092002  239
5.083      136.0                                                  30092002  240
5.089      132.9                                                  30092002  241
5.095      126.5                                                  30092002  242
5.101      126.3                                                  30092002  243
5.108      122.0                                                  30092002  244
5.114      130.4                                                  30092002  245
5.121      147.7                                                  30092002  246
5.127      164.2                                                  30092002  247
5.134      159.6                                                  30092002  248
5.140      131.6                                                  30092002  249
5.147      105.1                                                  30092002  250
5.154      83.6                                                   30092002  251
5.160      66.6                                                   30092002  252
5.167      55.8                                                   30092002  253
5.173      43.0                                                   30092002  254
5.180      36.0                                                   30092002  255
5.186      32.0                                                   30092002  256
5.193      25.9                                                   30092002  257
5.199      22.5                                                   30092002  258
5.205      19.5                                                   30092002  259
5.212      16.2                                                   30092002  260
5.218      15.0                                                   30092002  261
5.225      13.5                                                   30092002  262
5.231      12.6                                                   30092002  263
5.238      10.9                                                   30092002  264
5.245      9.8                                                    30092002  265
5.251      9.1                                                    30092002  266
5.258      8.2                                                    30092002  267
5.265      7.2                                                    30092002  268
5.271      6.5                                                    30092002  269
5.278      5.8                                                    30092002  270
5.284      5.5                                                    30092002  271
5.292      4.1                                                    30092002  272
5.299      3.7                                                    30092002  273
5.306      4.0                                                    30092002  274
5.312      10.7                                                   30092002  275
5.318      12.2                                                   30092002  276
5.325      11.9                                                   30092002  277
5.331      10.4                                                   30092002  278
5.338      8.8                                                    30092002  279
5.344      7.5                                                    30092002  280
5.352      6.7                                                    30092002  281
5.359      7.3                                                    30092002  282
5.365      18.1                                                   30092002  283
5.371      43.1                                                   30092002  284
5.378      41.5                                                   30092002  285
5.386      32.4                                                   30092002  286
5.393      19.0                                                   30092002  287
5.401      11.2                                                   30092002  288
5.408      7.3                                                    30092002  289
5.415      5.3                                                    30092002  290
5.422      4.1                                                    30092002  291
5.429      3.4                                                    30092002  292
5.436      2.4                                                    30092002  293
5.443      2.1                                                    30092002  294
5.450      1.4                                                    30092002  295
5.457      1.6                                                    30092002  296
5.465      1.8                                                    30092002  297
5.473      1.6                                                    30092002  298
5.479      1.3                                                    30092002  299
5.486      0.8                                                    30092002  300
5.493      0.6                                                    30092002  301
5.500      1.0                                                    30092002  302
5.508      0.9                                                    30092002  303
5.516      1.0                                                    30092002  304
5.524      0.1                                                    30092002  305
5.531      1.1                                                    30092002  306
5.538      0.9                                                    30092002  307
5.545      3.9                                                    30092002  308
5.553      3.5                                                    30092002  309
5.560      2.8                                                    30092002  310
5.568      2.1                                                    30092002  311
5.575      1.9                                                    30092002  312
5.582      1.9                                                    30092002  313
5.590      1.3                                                    30092002  314
5.597      1.6                                                    30092002  315
5.604      4.0                                                    30092002  316
5.611      4.7                                                    30092002  317
5.619      5.3                                                    30092002  318
5.627      6.0                                                    30092002  319
5.634      7.9                                                    30092002  320
5.641      7.3                                                    30092002  321
5.648      6.7                                                    30092002  322
5.655      8.7                                                    30092002  323
5.662      9.5                                                    30092002  324
5.669      11.3                                                   30092002  325
5.676      13.6                                                   30092002  326
5.684      23.2                                                   30092002  327
5.691      31.8                                                   30092002  328
5.697      33.1                                                   30092002  329
5.706      27.7                                                   30092002  330
5.713      22.6                                                   30092002  331
5.720      17.5                                                   30092002  332
5.728      13.3                                                   30092002  333
5.735      11.9                                                   30092002  334
5.742      11.0                                                   30092002  335
5.749      10.1                                                   30092002  336
5.757      9.4                                                    30092002  337
5.764      9.4                                                    30092002  338
5.771      9.3                                                    30092002  339
5.779      8.5                                                    30092002  340
5.786      8.6                                                    30092002  341
5.794      8.5                                                    30092002  342
5.803      8.1                                                    30092002  343
5.809      8.2                                                    30092002  344
5.817      8.2                                                    30092002  345
5.824      8.4                                                    30092002  346
5.831      8.3                                                    30092002  347
5.839      8.3                                                    30092002  348
5.847      8.7                                                    30092002  349
5.854      8.8                                                    30092002  350
5.861      9.9                                                    30092002  351
5.868      10.1                                                   30092002  352
5.876      11.4                                                   30092002  353
5.883      12.4                                                   30092002  354
5.891      15.4                                                   30092002  355
5.899      18.6                                                   30092002  356
5.906      25.3                                                   30092002  357
5.914      37.5                                                   30092002  358
5.921      60.9                                                   30092002  359
5.928      97.9                                                   30092002  360
5.936      137.7                                                  30092002  361
5.943      148.6                                                  30092002  362
5.950      121.3                                                  30092002  363
5.959      90.4                                                   30092002  364
5.967      56.9                                                   30092002  365
5.974      38.4                                                   30092002  366
5.982      28.6                                                   30092002  367
5.990      22.3                                                   30092002  368
5.997      17.5                                                   30092002  369
6.005      15.9                                                   30092002  370
6.013      13.8                                                   30092002  371
6.021      10.4                                                   30092002  372
6.028      7.1                                                    30092002  373
6.036      6.3                                                    30092002  374
6.044      7.1                                                    30092002  375
6.052      7.1                                                    30092002  376
6.059      8.3                                                    30092002  377
6.068      9.2                                                    30092002  378
6.075      11.7                                                   30092002  379
6.083      14.2                                                   30092002  380
6.091      30.1                                                   30092002  381
6.098      127.6                                                  30092002  382
6.106      133.7                                                  30092002  383
6.113      106.9                                                  30092002  384
6.121      76.9                                                   30092002  385
6.130      53.6                                                   30092002  386
6.137      40.1                                                   30092002  387
6.146      32.1                                                   30092002  388
6.154      30.5                                                   30092002  389
6.161      29.9                                                   30092002  390
6.168      31.5                                                   30092002  391
6.176      35.7                                                   30092002  392
6.183      37.4                                                   30092002  393
6.191      39.1                                                   30092002  394
6.199      41.4                                                   30092002  395
6.208      43.5                                                   30092002  396
6.216      46.2                                                   30092002  397
6.224      46.8                                                   30092002  398
6.232      45.9                                                   30092002  399
6.239      45.6                                                   30092002  400
6.247      45.0                                                   30092002  401
6.256      45.3                                                   30092002  402
6.264      44.8                                                   30092002  403
6.272      45.3                                                   30092002  404
6.279      45.8                                                   30092002  405
6.287      46.6                                                   30092002  406
6.295      46.0                                                   30092002  407
6.303      45.1                                                   30092002  408
6.311      43.2                                                   30092002  409
6.319      41.0                                                   30092002  410
6.327      38.4                                                   30092002  411
6.336      37.5                                                   30092002  412
6.343      37.7                                                   30092002  413
6.351      38.4                                                   30092002  414
6.359      38.4                                                   30092002  415
6.367      42.6                                                   30092002  416
6.376      47.8                                                   30092002  417
6.384      55.1                                                   30092002  418
6.392      65.5                                                   30092002  419
6.400      79.9                                                   30092002  420
6.408      100.1                                                  30092002  421
6.416      124.2                                                  30092002  422
6.425      154.2                                                  30092002  423
6.433      187.0                                                  30092002  424
6.441      216.1                                                  30092002  425
6.449      233.7                                                  30092002  426
6.457      222.7                                                  30092002  427
6.465      195.1                                                  30092002  428
6.473      171.6                                                  30092002  429
6.481      163.8                                                  30092002  430
6.489      165.3                                                  30092002  431
ENDDATA            408                                            30092002  432
ENDSUBENT          431                                            3009200299999
ENDENTRY             2                                            3009299999999
ENTRY            A0613   20021008   20031006   20050926       0000A0613000    1
SUBENT        A0613001   20021008   20031006   20050926       0000A0613001    1
BIB                 12         51                                 A0613001    2
TITLE      Reaction Rates of the S-Process Neutron Sources        A0613001    3
           22-Ne(ALPHA,N)25-Mg and 13-C(ALPHA,N)16-O.             A0613001    4
REFERENCE  (J,AJ,414,735,1993)                                    A0613001    5
COMMENT    - Abstract-                                            A0613001    6
           The Excitation Function of the S-Process Neutron SourceA0613001    7
           Reactions 22-Ne(A,N)25-Mg and 13-C(A,N)16-O has Been   A0613001    8
           Measured Using Improved Ion-Beam, Target, and DetectionA0613001    9
           Techniques, Reaching a Sensitivity Limit of 50         A0613001   10
           Picobarns in the Best Cases. For 22-Ne(A,N)25-Mg the   A0613001   11
           New Data Cover the Energy Range from Threshold (E-LAB =A0613001   12
           570 KEV) Up to E-Lab= 2300 KeV. From these Experiments A0613001   13
           Some of the Parameters of the 22-Ne(A,N)25-Mg          A0613001   14
           Resoances have Been Determined Using Unfolding         A0613001   15
           Techniques. A Resonance at About E=620 KeV Could       A0613001   16
           Clearly be Ascribed to the Background Reaction         A0613001   17
           11-B(A,N)14-N. The Excitation Function of              A0613001   18
           13-C(A,N)16-O has Been Measured Over the Energy Range  A0613001   19
           E-Lab= 350-1400 KeV, Where the Cross Section Varies    A0613001   20
           Over Eight Orders of Magnitude. The S-Factor at this   A0613001   21
           Reaction Indicates an Increase Toward Lower Energies,  A0613001   22
           Possibly Due to a State in 17-O Below the (13-C+ ALPHA)A0613001   23
           Threshold Leading to a Higher Reaction Rate.  On the   A0613001   24
           Basis of the Experimental Data the Reaction Rates at   A0613001   25
           Helium-Burning Temperatures were Determined For these  A0613001   26
           Two Reactions: Both Rates are Increased Compared with  A0613001   27
           Previous Evaluations.                                  A0613001   28
AUTHOR     (H.W.DROTLEFF, A.DENKER, H.KNEE, M.SOINE, G.WOLF,      A0613001   29
           J.W.HAMMER, U.GREIPE, C.ROLFS, H.P.TRAUTVETTER)        A0613001   30
INSTITUTE  (2GERTHS)                                              A0613001   31
           (2GERBOC)                                              A0613001   32
FACILITY   (DYNAM,2GERTHS)                                        A0613001   33
PART-DET   (N)                                                    A0613001   34
DETECTOR   (D4PI) For 22-Ne(A,N)25-Mg the Sensitivity Limit was   A0613001   35
           Reached at About 5.E-10 Barn with an Improved 4-Pi     A0613001   36
           Neutron-Detector.  For 13-C(A,N)16-O the Sensitivity   A0613001   37
           Limit was an Order of Magnitude Still Lower Due to the A0613001   38
           Effective Differential Measurement Procedure.  The     A0613001   39
           Design of the Detector [Two Concentric Circles of EightA0613001   40
           3-He Counters Each in a Polyethylene Moderator] Led to A0613001   41
           An Absolute Efficiency of 37+/-1% in the Neon          A0613001   42
           Experiment [0< E-Lab < 1.5 Mev] and Allowed a Rough    A0613001   43
           Energy Measurement of the Neutrons by Taking Into      A0613001   44
           Account the Ratio of the Count Rates Registered from   A0613001   45
           The Inner and the Outer Counter Rings.                 A0613001   46
METHOD     (SITA)                                                 A0613001   47
           (BCINT)                                                A0613001   48
STATUS     (NACRE) Dr93 Data Set                                  A0613001   49
ERR-ANALYS (ERR-T) The Uncertainty is Given in Data Table Without A0613001   50
           Any Analysis                                           A0613001   51
HISTORY    (19990527C)                                            A0613001   52
           (20021008U) Last checking has been done.               A0613001   53
ENDBIB              51                                            A0613001   54
NOCOMMON                                                          A0613001   55
ENDSUBENT           54                                            A061300199999
SUBENT        A0613003   20021008   20031006   20050926       0000A0613003    1
BIB                  2          7                                 A0613003    2
REACTION   (6-C-13(A,N)8-O-16,,SIG)                               A0613003    3
SAMPLE     In the Case of 13-C(A,N)16-O, Special Targets For High A0613003    4
           Currents were Made Using Enriched Elemental 13-C (99%) A0613003    5
           On a Solid Copper Backing.  These Targets Could be     A0613003    6
           Reversed in Situ to Allow Accurate Background          A0613003    7
           Measurements by Letting the Beam Hit the Bare Backing  A0613003    8
           Material Instead of Tbe 13-C-Coated Backing.           A0613003    9
ENDBIB               7                                            A0613003   10
NOCOMMON                                                          A0613003   11
DATA                 3         55                                 A0613003   12
EN-CM      DATA       ERR-T                                       A0613003   13
MEV        B          B                                           A0613003   14
      0.279    6.1E-11    3.7E-11                                 A0613003   15
      0.297    1.4E-10     8.E-11                                 A0613003   16
      0.301    1.7E-10     8.E-11                                 A0613003   17
      0.305    1.9E-10    9.3E-11                                 A0613003   18
      0.308    2.2E-10     1.E-10                                 A0613003   19
      0.312    3.3E-10    1.1E-10                                 A0613003   20
      0.317    3.6E-10    1.2E-10                                 A0613003   21
       0.32    3.9E-10    1.4E-10                                 A0613003   22
      0.328    4.9E-10    1.4E-10                                 A0613003   23
      0.334    7.2E-10     2.E-10                                 A0613003   24
      0.342    1.1E-09    2.2E-10                                 A0613003   25
       0.35    1.6E-09    3.8E-10                                 A0613003   26
      0.357    2.2E-09    4.4E-10                                 A0613003   27
      0.365     3.E-09     6.E-10                                 A0613003   28
      0.373    4.1E-09    7.7E-10                                 A0613003   29
       0.38    5.5E-09    9.4E-10                                 A0613003   30
      0.388    7.7E-09    1.3E-09                                 A0613003   31
      0.403    1.4E-08    1.9E-09                                 A0613003   32
      0.418    2.4E-08    2.9E-09                                 A0613003   33
      0.433    3.9E-08    4.7E-09                                 A0613003   34
      0.448     7.E-08    8.4E-09                                 A0613003   35
      0.486    2.4E-07    2.4E-08                                 A0613003   36
      0.524    7.1E-07    7.1E-08                                 A0613003   37
      0.562    2.2E-06     2.E-07                                 A0613003   38
        0.6    5.8E-06    5.2E-07                                 A0613003   39
      0.638    1.4E-05    1.2E-06                                 A0613003   40
      0.676    3.3E-05     3.E-06                                 A0613003   41
      0.714    7.4E-05    6.7E-06                                 A0613003   42
       0.76    0.00017    1.5E-05                                 A0613003   43
      0.789    0.00028    2.5E-05                                 A0613003   44
      0.796    0.00034    3.1E-05                                 A0613003   45
        0.8     0.0004    3.6E-05                                 A0613003   46
      0.804    0.00087    7.8E-05                                 A0613003   47
      0.808      0.002    0.00018                                 A0613003   48
      0.812     0.0021    0.00019                                 A0613003   49
      0.815      0.002    0.00018                                 A0613003   50
      0.819     0.0016    0.00014                                 A0613003   51
      0.823     0.0011    9.5E-05                                 A0613003   52
      0.827    0.00062    5.6E-05                                 A0613003   53
      0.831    0.00058    5.2E-05                                 A0613003   54
      0.835    0.00058    5.2E-05                                 A0613003   55
      0.872    0.00079    7.1E-05                                 A0613003   56
       0.91    0.00098    8.9E-05                                 A0613003   57
      0.955     0.0011     0.0001                                 A0613003   58
      1.001     0.0013    0.00012                                 A0613003   59
      1.009     0.0014    0.00012                                 A0613003   60
      1.017     0.0015    0.00014                                 A0613003   61
       1.02     0.0043    0.00039                                 A0613003   62
      1.024     0.0058    0.00052                                 A0613003   63
      1.028     0.0059    0.00053                                 A0613003   64
      1.032     0.0052    0.00047                                 A0613003   65
      1.036     0.0031    0.00028                                 A0613003   66
       1.04     0.0018    0.00016                                 A0613003   67
      1.047     0.0015    0.00013                                 A0613003   68
      1.062     0.0015    0.00013                                 A0613003   69
ENDDATA             57                                            A0613003   70
ENDSUBENT           69                                            A061300399999
ENDENTRY             2                                            A061399999999
ENTRY            F0786   20171114   20180118   20180115       F066F0786000    1
SUBENT        F0786001   20171114   20180118   20180115       F066F0786001    1
BIB                 11         37                                 F0786001    2
TITLE      Cross section of the 13C(a,n)16O reaction: A backgroundF0786001    3
            for the measurement of geo-neutrinos.                 F0786001    4
AUTHOR     (S.Harissopulos, H.W.Becker, J.W.Hammer, A.Lagoyannis, F0786001    5
            C.Rolfs, F.Strieder)                                  F0786001    6
INSTITUTE  (2GRCATH,2GERBOC,2GERIFS)                              F0786001    7
REFERENCE  (J,PR/C,72,062801,2005)                                F0786001    8
FACILITY   (VDGT,2GERBOC)                                         F0786001    9
SAMPLE     (6-C-13,ENR=0.9) 22 ug/cm2 (39 to 13 keV) thick target F0786001   10
            (on a 0.2 mm thick Ta backing) enriched to 90% in 13C.F0786001   11
           The air-cooled target (40 mm in diameter) was          F0786001   12
            installed in an electrically insulated pipe of 0.80 m F0786001   13
            length, which served as a long Faraday cup.           F0786001   14
DETECTOR   (PROPC,D4PI) A 4-pi detector consisting of thermal-    F0786001   15
            neutron detectors, i.e.,16 3He-filled proportional    F0786001   16
            counters (sensitive length=45.7 cm, diam.=2.54 cm,    F0786001   17
            pressure=4 bar), embedded in a polyethylene-cylinder  F0786001   18
            moderator (length=1.00 m, diam.=35.0 cm) with a centraF0786001   19
            bore hole (diam.=7.0 cm) to install the target.       F0786001   20
           The neutron detection efficiency was calculated by MCNPF0786001   21
            and shows good agreement with calibration by 252Cf at F0786001   22
            En=2.3 MeV (32.1+ /-0.5% by 252Cf, 31.6% by MCNP).    F0786001   23
METHOD     (BCINT) Number of projectiles was determined by        F0786001   24
            current integrator.                                   F0786001   25
COMMENT    For nonresonant energies, where the yields change      F0786001   26
            slowly with energy, the observed yields (and thus the F0786001   27
            cross sections) are associated with an effective      F0786001   28
            energy Eeff over the target thickness d(Ea).          F0786001   29
           For energies with resonance structures, where the      F0786001   30
            resonance width is comparable to the target thickness,F0786001   31
            the deduced value Eeff and associated yield representsF0786001   32
            a mean cross section over delta(Ea).                  F0786001   33
STATUS     (APRVD) Proofread by Sotirios Harissopulos (2013-03-20)F0786001   34
HISTORY    (20050517C)                                            F0786001   35
           (20130319U) On. DETECTOR moved from subentry 002.      F0786001   36
           (20171114A) Sub 002 was corrected.  Error description  F0786001   37
           and data presentation in sub 002, 003 was changed.     F0786001   38
           REL-REF and CRITIQUE records were added in sub 004.    F0786001   39
ENDBIB              37                                            F0786001   40
NOCOMMON             0          0                                 F0786001   41
ENDSUBENT           40                                            F078600199999
SUBENT        F0786004   20171114   20180118   20180115       F066F0786004    1
BIB                  7         22                                 F0786004    2
REACTION   (6-C-13(A,N)8-O-16,,SIG)                               F0786004    3
INC-SPECT  EN: The effective energy over the target thickness.    F0786004    4
REL-REF    (C,,W.A.Peters,J,PR/C,96,029801,2017)                  F0786004    5
           (A,,C.R.Brune+,J,PR/C,48,3119,1993)                    F0786004    6
           The data from the present experiment at Eeff=1.00 MeV  F0786004    7
            (157 +/- 7 ub) is in good agreement with the previous F0786004    8
            value of 146 +/- 7 ub (C.R.Brune et al., 1993).       F0786004    9
           Their weighted average (152 +/- 5 ub) was adopted as   F0786004   10
            the reference value.                                  F0786004   11
CRITIQUE   W.A.Peters (2017): the reported 13C(a,n)16O cross      F0786004   12
           sections above 5 MeV may be overcalculated by          F0786004   13
           nearly 50 %.                                           F0786004   14
ERR-ANALYS With the relative error of 2% and absolute error of 3%,F0786004   15
            one arrives at an overall accuracy of 4% for the data F0786004   16
            of the present work.                                  F0786004   17
           (ERR-S) Number of outgoing neutrons                    F0786004   18
           (ERR-1) Number of incident alpha projectiles           F0786004   19
           (ERR-2) Areal target density                           F0786004   20
           (ERR-3) Neutron detection efficiency                   F0786004   21
STATUS     (TABLE) Table I of Phys.Rev.C72(2005)062801            F0786004   22
HISTORY    (20130319A) On. Partial uncertainties added            F0786004   23
           (20171114A) REL-REF and CRITIQUE records were added    F0786004   24
ENDBIB              22                                            F0786004   25
COMMON               3          3                                 F0786004   26
ERR-1      ERR-2      ERR-3                                       F0786004   27
PER-CENT   PER-CENT   PER-CENT                                    F0786004   28
        2.0        3.0        1.7                                 F0786004   29
ENDCOMMON            3                                            F0786004   30
DATA                 3        679                                 F0786004   31
EN         DATA       ERR-S                                       F0786004   32
MEV        MB         PER-CENT                                    F0786004   33
      0.767     0.0026                                            F0786004   34
      0.786     0.0033                                            F0786004   35
      0.807     0.0051                                            F0786004   36
      0.826     0.0072                                            F0786004   37
      0.846     0.0108                                            F0786004   38
      0.866     0.0143                                            F0786004   39
      0.886     0.0202                                            F0786004   40
      0.906     0.0287                                            F0786004   41
      0.925     0.0384                                            F0786004   42
      0.945     0.0532                                            F0786004   43
      0.965     0.0801                                            F0786004   44
      0.975     0.0893                                            F0786004   45
      0.985      0.101                                            F0786004   46
      0.994      0.116                                            F0786004   47
      1.005      0.152        1.6                                 F0786004   48
      1.016      0.164                                            F0786004   49
      1.025      0.189                                            F0786004   50
      1.030      0.209                                            F0786004   51
      1.046      0.461                                            F0786004   52
      1.050      0.850                                            F0786004   53
      1.052       2.03                                            F0786004   54
      1.053       4.53                                            F0786004   55
      1.054       8.77                                            F0786004   56
      1.055       4.54                                            F0786004   57
      1.056       2.04                                            F0786004   58
      1.058      0.880                                            F0786004   59
      1.062      0.556                                            F0786004   60
      1.078      0.495                                            F0786004   61
      1.080      0.481                                            F0786004   62
      1.087      0.466                                            F0786004   63
      1.098      0.483                                            F0786004   64
      1.112      0.485                                            F0786004   65
      1.122      0.500                                            F0786004   66
      1.132      0.561                                            F0786004   67
      1.142      0.598                                            F0786004   68
      1.152      0.614                                            F0786004   69
      1.162      0.640                                            F0786004   70
      1.172      0.664                                            F0786004   71
      1.182      0.681                                            F0786004   72
      1.192      0.740                                            F0786004   73
      1.202      0.749                                            F0786004   74
      1.212      0.784                                            F0786004   75
      1.222      0.795                                            F0786004   76
      1.232      0.796                                            F0786004   77
      1.242      0.834                                            F0786004   78
      1.251      0.868                                            F0786004   79
      1.261      0.869                                            F0786004   80
      1.271      0.866                                            F0786004   81
      1.281      0.931                                            F0786004   82
      1.291      0.887                                            F0786004   83
      1.301      0.941                                            F0786004   84
      1.303      0.918                                            F0786004   85
      1.305      0.930                                            F0786004   86
      1.307      0.950                                            F0786004   87
      1.309      0.958                                            F0786004   88
      1.311      0.990                                            F0786004   89
      1.333       2.21                                            F0786004   90
      1.334       4.26                                            F0786004   91
      1.335       10.8                                            F0786004   92
      1.336       48.2                                            F0786004   93
      1.337       10.9                                            F0786004   94
      1.338       4.27                                            F0786004   95
      1.339       2.22                                            F0786004   96
      1.365       1.14                                            F0786004   97
      1.377       1.13                                            F0786004   98
      1.389       1.12                                            F0786004   99
      1.400       1.09                                            F0786004  100
      1.410       1.11                                            F0786004  101
      1.420       1.16                                            F0786004  102
      1.431       1.21                                            F0786004  103
      1.441       1.19                                            F0786004  104
      1.450       1.22                                            F0786004  105
      1.461       1.29                                            F0786004  106
      1.471       1.29                                            F0786004  107
      1.480       1.31                                            F0786004  108
      1.490       1.31                                            F0786004  109
      1.500       1.37                                            F0786004  110
      1.510       1.42                                            F0786004  111
      1.520       1.44                                            F0786004  112
      1.530       1.57                                            F0786004  113
      1.541       1.67                                            F0786004  114
      1.550       1.62                                            F0786004  115
      1.560       1.75                                            F0786004  116
      1.585       2.90                                            F0786004  117
      1.587       3.20                                            F0786004  118
      1.588       4.30                                            F0786004  119
      1.589       6.25                                            F0786004  120
      1.590       10.5                                            F0786004  121
      1.591       6.26                                            F0786004  122
      1.592       4.33                                            F0786004  123
      1.593       3.32                                            F0786004  124
      1.595       3.02                                            F0786004  125
      1.609       2.12                                            F0786004  126
      1.619       2.17                                            F0786004  127
      1.629       2.23                                            F0786004  128
      1.639       2.29                                            F0786004  129
      1.649       2.38                                            F0786004  130
      1.660       2.45                                            F0786004  131
      1.670       2.75                                            F0786004  132
      1.680       2.85                                            F0786004  133
      1.690       2.95                                            F0786004  134
      1.699       3.24                                            F0786004  135
      1.709       3.34                                            F0786004  136
      1.719       3.73                                            F0786004  137
      1.730       4.11                                            F0786004  138
      1.740       4.30                                            F0786004  139
      1.749       4.37                                            F0786004  140
      1.759       4.42                                            F0786004  141
      1.769       4.81                                            F0786004  142
      1.779       4.98                                            F0786004  143
      1.789       5.26                                            F0786004  144
      1.799       5.48                                            F0786004  145
      1.808       5.66                                            F0786004  146
      1.818       5.98                                            F0786004  147
      1.828       6.42                                            F0786004  148
      1.839       7.33                                            F0786004  149
      1.849       7.87                                            F0786004  150
      1.859       8.33                                            F0786004  151
      1.869       8.77                                            F0786004  152
      1.879       9.50                                            F0786004  153
      1.889       10.1                                            F0786004  154
      1.899       10.7                                            F0786004  155
      1.909       11.4                                            F0786004  156
      1.918       12.3                                            F0786004  157
      1.928       13.7                                            F0786004  158
      1.938       14.8                                            F0786004  159
      1.948       15.8                                            F0786004  160
      1.958       17.3                                            F0786004  161
      1.968       18.8                                            F0786004  162
      1.978       20.5                                            F0786004  163
      1.988       22.6                                            F0786004  164
      1.998       24.6                                            F0786004  165
      2.009       28.0                                            F0786004  166
      2.019       30.6                                            F0786004  167
      2.028       33.6                                            F0786004  168
      2.038       37.0                                            F0786004  169
      2.048       40.3                                            F0786004  170
      2.057       43.1                                            F0786004  171
      2.067       44.2                                            F0786004  172
      2.077       44.5                                            F0786004  173
      2.087       48.5                                            F0786004  174
      2.097       45.2                                            F0786004  175
      2.106       41.2                                            F0786004  176
      2.116       39.5                                            F0786004  177
      2.126       38.2                                            F0786004  178
      2.136       37.4                                            F0786004  179
      2.146       37.5                                            F0786004  180
      2.156       39.8                                            F0786004  181
      2.167       42.8                                            F0786004  182
      2.177       47.0                                            F0786004  183
      2.187       53.0                                            F0786004  184
      2.197       59.9                                            F0786004  185
      2.207       66.4                                            F0786004  186
      2.217       75.2                                            F0786004  187
      2.227       75.3                                            F0786004  188
      2.236       74.1                                            F0786004  189
      2.245       73.3                                            F0786004  190
      2.255       67.7                                            F0786004  191
      2.265       66.2                                            F0786004  192
      2.275       59.1                                            F0786004  193
      2.285       56.0                                            F0786004  194
      2.295       55.1                                            F0786004  195
      2.305       53.8                                            F0786004  196
      2.315       53.7                                            F0786004  197
      2.325       52.9                                            F0786004  198
      2.335       54.3                                            F0786004  199
      2.346       56.5                                            F0786004  200
      2.355       59.0                                            F0786004  201
      2.365       63.3                                            F0786004  202
      2.375       66.4                                            F0786004  203
      2.385       67.5                                            F0786004  204
      2.395       66.1                                            F0786004  205
      2.405       65.3                                            F0786004  206
      2.414       59.8                                            F0786004  207
      2.424       53.3                                            F0786004  208
      2.434       45.6                                            F0786004  209
      2.444       38.6                                            F0786004  210
      2.454       34.5                                            F0786004  211
      2.464       32.3                                            F0786004  212
      2.473       28.6                                            F0786004  213
      2.483       26.2                                            F0786004  214
      2.493       24.7                                            F0786004  215
      2.503       23.1                                            F0786004  216
      2.513       21.7                                            F0786004  217
      2.524       21.0                                            F0786004  218
      2.534       20.5                                            F0786004  219
      2.544       20.7                                            F0786004  220
      2.554       21.1                                            F0786004  221
      2.565       24.7                                            F0786004  222
      2.576       38.3                                            F0786004  223
      2.586       51.1                                            F0786004  224
      2.595       46.2                                            F0786004  225
      2.602       32.1                                            F0786004  226
      2.611       24.9                                            F0786004  227
      2.621       21.5                                            F0786004  228
      2.632       20.4                                            F0786004  229
      2.643       22.7                                            F0786004  230
      2.657       51.8                                            F0786004  231
      2.666       52.6                                            F0786004  232
      2.673       39.6                                            F0786004  233
      2.681       24.1                                            F0786004  234
      2.690       21.1                                            F0786004  235
      2.701       19.7                                            F0786004  236
      2.712       19.6                                            F0786004  237
      2.723       21.5                                            F0786004  238
      2.735       35.5                                            F0786004  239
      2.745       47.5                                            F0786004  240
      2.754       41.9                                            F0786004  241
      2.762       31.2                                            F0786004  242
      2.772       45.9                                            F0786004  243
      2.787       108.                                            F0786004  244
      2.792       115.                                            F0786004  245
      2.796       108.                                            F0786004  246
      2.801       60.1                                            F0786004  247
      2.808       30.0                                            F0786004  248
      2.818       22.6                                            F0786004  249
      2.830       19.7                                            F0786004  250
      2.841       18.0                                            F0786004  251
      2.851       17.1                                            F0786004  252
      2.862       16.7                                            F0786004  253
      2.872       16.5                                            F0786004  254
      2.882       16.5                                            F0786004  255
      2.892       17.0                                            F0786004  256
      2.902       17.0                                            F0786004  257
      2.911       17.3                                            F0786004  258
      2.921       17.6                                            F0786004  259
      2.931       18.1                                            F0786004  260
      2.941       18.7                                            F0786004  261
      2.951       19.8                                            F0786004  262
      2.962       21.1                                            F0786004  263
      2.972       22.1                                            F0786004  264
      2.982       24.4                                            F0786004  265
      2.992       27.6                                            F0786004  266
      3.002       31.9                                            F0786004  267
      3.012       37.3                                            F0786004  268
      3.021       41.6                                            F0786004  269
      3.031       45.8                                            F0786004  270
      3.041       47.6                                            F0786004  271
      3.051       46.1                                            F0786004  272
      3.060       43.8                                            F0786004  273
      3.070       41.2                                            F0786004  274
      3.080       38.8                                            F0786004  275
      3.090       37.4                                            F0786004  276
      3.100       37.3                                            F0786004  277
      3.111       36.9                                            F0786004  278
      3.121       37.0                                            F0786004  279
      3.130       37.9                                            F0786004  280
      3.140       39.2                                            F0786004  281
      3.150       40.4                                            F0786004  282
      3.160       42.3                                            F0786004  283
      3.170       44.4                                            F0786004  284
      3.180       47.2                                            F0786004  285
      3.190       52.4                                            F0786004  286
      3.200       56.9                                            F0786004  287
      3.210       61.2                                            F0786004  288
      3.220       67.0                                            F0786004  289
      3.230       72.1                                            F0786004  290
      3.239       78.2                                            F0786004  291
      3.249       85.8                                            F0786004  292
      3.259       91.9                                            F0786004  293
      3.269       99.0                                            F0786004  294
      3.279       104.                                            F0786004  295
      3.289       110.                                            F0786004  296
      3.299       116.                                            F0786004  297
      3.309       107.                                            F0786004  298
      3.319       103.                                            F0786004  299
      3.329       93.4                                            F0786004  300
      3.338       84.1                                            F0786004  301
      3.348       79.7                                            F0786004  302
      3.358       69.9                                            F0786004  303
      3.368       68.9                                            F0786004  304
      3.378       68.8                                            F0786004  305
      3.388       76.4                                            F0786004  306
      3.399       88.6                                            F0786004  307
      3.409       85.6                                            F0786004  308
      3.418       68.8                                            F0786004  309
      3.427       48.0                                            F0786004  310
      3.436       34.7                                            F0786004  311
      3.446       25.7                                            F0786004  312
      3.457       20.7                                            F0786004  313
      3.466       17.1                                            F0786004  314
      3.476       14.2                                            F0786004  315
      3.486       12.2                                            F0786004  316
      3.497       10.6                                            F0786004  317
      3.507       9.18                                            F0786004  318
      3.517       7.98                                            F0786004  319
      3.527       7.09                                            F0786004  320
      3.537       6.36                                            F0786004  321
      3.547       5.80                                            F0786004  322
      3.557       5.21                                            F0786004  323
      3.567       4.71                                            F0786004  324
      3.576       4.10                                            F0786004  325
      3.586       3.60                                            F0786004  326
      3.596       3.19                                            F0786004  327
      3.606       2.89                                            F0786004  328
      3.618       4.55                                            F0786004  329
      3.630       10.2                                            F0786004  330
      3.638       9.34                                            F0786004  331
      3.645       5.85                                            F0786004  332
      3.655       4.63                                            F0786004  333
      3.666       4.31                                            F0786004  334
      3.677       4.97                                            F0786004  335
      3.691       19.1                                            F0786004  336
      3.699       33.3                                            F0786004  337
      3.706       19.4                                            F0786004  338
      3.713       7.44                                            F0786004  339
      3.722       4.16                                            F0786004  340
      3.733       2.75                                            F0786004  341
      3.744       2.31                                            F0786004  342
      3.755       2.03                                            F0786004  343
      3.765       1.72                                            F0786004  344
      3.775       1.60                                            F0786004  345
      3.786       1.53                                            F0786004  346
      3.795       1.50                                            F0786004  347
      3.805       1.47                                            F0786004  348
      3.815       1.42                                            F0786004  349
      3.825       1.39                                            F0786004  350
      3.835       1.36                                            F0786004  351
      3.845       1.39                                            F0786004  352
      3.855       1.37                                            F0786004  353
      3.865       1.43                                            F0786004  354
      3.875       1.47                                            F0786004  355
      3.885       1.57                                            F0786004  356
      3.895       1.71                                            F0786004  357
      3.905       1.84                                            F0786004  358
      3.915       2.01                                            F0786004  359
      3.925       2.28                                            F0786004  360
      3.935       2.61                                            F0786004  361
      3.945       2.95                                            F0786004  362
      3.955       3.43                                            F0786004  363
      3.965       4.07                                            F0786004  364
      3.975       4.62                                            F0786004  365
      3.985       5.14                                            F0786004  366
      3.995       5.62                                            F0786004  367
      4.005       6.20                                            F0786004  368
      4.014       6.55                                            F0786004  369
      4.024       7.05                                            F0786004  370
      4.034       7.59                                            F0786004  371
      4.044       8.83                                            F0786004  372
      4.055       12.5                                            F0786004  373
      4.065       20.2                                            F0786004  374
      4.074       20.7                                            F0786004  375
      4.083       14.8                                            F0786004  376
      4.092       10.9                                            F0786004  377
      4.102       8.85                                            F0786004  378
      4.113       7.96                                            F0786004  379
      4.122       7.28                                            F0786004  380
      4.132       6.81                                            F0786004  381
      4.142       6.61                                            F0786004  382
      4.152       6.37                                            F0786004  383
      4.162       6.20                                            F0786004  384
      4.172       6.19                                            F0786004  385
      4.183       6.10                                            F0786004  386
      4.193       6.03                                            F0786004  387
      4.203       6.07                                            F0786004  388
      4.213       6.17                                            F0786004  389
      4.223       6.23                                            F0786004  390
      4.232       6.43                                            F0786004  391
      4.242       6.59                                            F0786004  392
      4.252       6.86                                            F0786004  393
      4.262       7.15                                            F0786004  394
      4.272       7.70                                            F0786004  395
      4.282       8.55                                            F0786004  396
      4.292       9.70                                            F0786004  397
      4.302       11.0                                            F0786004  398
      4.313       13.7                                            F0786004  399
      4.323       18.1                                            F0786004  400
      4.333       26.7                                            F0786004  401
      4.343       43.3                                            F0786004  402
      4.353       71.7                                            F0786004  403
      4.362       89.8                                            F0786004  404
      4.371       76.0                                            F0786004  405
      4.380       49.6                                            F0786004  406
      4.389       31.7                                            F0786004  407
      4.399       22.3                                            F0786004  408
      4.410       16.9                                            F0786004  409
      4.420       13.7                                            F0786004  410
      4.430       12.1                                            F0786004  411
      4.441       11.4                                            F0786004  412
      4.451       10.1                                            F0786004  413
      4.459       7.70                                            F0786004  414
      4.469       6.59                                            F0786004  415
      4.480       6.47                                            F0786004  416
      4.490       7.05                                            F0786004  417
      4.500       7.51                                            F0786004  418
      4.510       7.99                                            F0786004  419
      4.521       10.1                                            F0786004  420
      4.531       10.9                                            F0786004  421
      4.541       17.1                                            F0786004  422
      4.549       55.1                                            F0786004  423
      4.554       80.7                                            F0786004  424
      4.558       89.6                                            F0786004  425
      4.561       76.2                                            F0786004  426
      4.564       57.7                                            F0786004  427
      4.568       45.0                                            F0786004  428
      4.578       37.1                                            F0786004  429
      4.588       27.4                                            F0786004  430
      4.598       21.6                                            F0786004  431
      4.609       20.1                                            F0786004  432
      4.619       20.2                                            F0786004  433
      4.629       21.0                                            F0786004  434
      4.639       22.5                                            F0786004  435
      4.649       24.2                                            F0786004  436
      4.659       25.9                                            F0786004  437
      4.670       28.1                                            F0786004  438
      4.679       29.3                                            F0786004  439
      4.688       29.9                                            F0786004  440
      4.698       30.3                                            F0786004  441
      4.708       29.8                                            F0786004  442
      4.718       30.0                                            F0786004  443
      4.728       29.8                                            F0786004  444
      4.738       29.6                                            F0786004  445
      4.748       30.1                                            F0786004  446
      4.758       30.6                                            F0786004  447
      4.768       31.0                                            F0786004  448
      4.778       31.3                                            F0786004  449
      4.787       29.8                                            F0786004  450
      4.797       29.0                                            F0786004  451
      4.807       27.0                                            F0786004  452
      4.817       25.5                                            F0786004  453
      4.827       24.9                                            F0786004  454
      4.837       24.8                                            F0786004  455
      4.848       25.8                                            F0786004  456
      4.858       27.2                                            F0786004  457
      4.868       29.6                                            F0786004  458
      4.878       32.9                                            F0786004  459
      4.888       37.8                                            F0786004  460
      4.897       44.2                                            F0786004  461
      4.907       53.0                                            F0786004  462
      4.917       64.0                                            F0786004  463
      4.927       80.7                                            F0786004  464
      4.937       98.7                                            F0786004  465
      4.947       121.                                            F0786004  466
      4.957       129.                                            F0786004  467
      4.967       124.                                            F0786004  468
      4.976       110.                                            F0786004  469
      4.986       95.8                                            F0786004  470
      4.996       90.2                                            F0786004  471
      5.006       92.4                                            F0786004  472
      5.016       93.1                                            F0786004  473
      5.026       95.6                                            F0786004  474
      5.036       99.0                                            F0786004  475
      5.046       103.                                            F0786004  476
      5.056       109.                                            F0786004  477
      5.066       114.                                            F0786004  478
      5.076       119.                                            F0786004  479
      5.086       124.                                            F0786004  480
      5.096       131.                                            F0786004  481
      5.106       137.                                            F0786004  482
      5.115       144.                                            F0786004  483
      5.125       150.                                            F0786004  484
      5.135       165.                                            F0786004  485
      5.145       169.                                            F0786004  486
      5.155       168.                                            F0786004  487
      5.165       167.                                            F0786004  488
      5.175       164.                                            F0786004  489
      5.185       161.                                            F0786004  490
      5.195       157.                                            F0786004  491
      5.205       154.                                            F0786004  492
      5.215       150.                                            F0786004  493
      5.224       146.                                            F0786004  494
      5.234       144.                                            F0786004  495
      5.244       142.                                            F0786004  496
      5.254       141.                                            F0786004  497
      5.264       150.                                            F0786004  498
      5.275       201.                                            F0786004  499
      5.284       228.                                            F0786004  500
      5.294       183.                                            F0786004  501
      5.303       156.                                            F0786004  502
      5.314       151.                                            F0786004  503
      5.324       152.                                            F0786004  504
      5.333       158.                                            F0786004  505
      5.343       168.                                            F0786004  506
      5.353       178.                                            F0786004  507
      5.363       193.                                            F0786004  508
      5.373       211.                                            F0786004  509
      5.383       225.                                            F0786004  510
      5.393       238.                                            F0786004  511
      5.403       243.                                            F0786004  512
      5.413       240.                                            F0786004  513
      5.423       237.                                            F0786004  514
      5.433       235.                                            F0786004  515
      5.443       240.                                            F0786004  516
      5.452       251.                                            F0786004  517
      5.462       254.                                            F0786004  518
      5.472       240.                                            F0786004  519
      5.482       202.                                            F0786004  520
      5.492       173.                                            F0786004  521
      5.502       151.                                            F0786004  522
      5.512       135.                                            F0786004  523
      5.522       123.                                            F0786004  524
      5.532       114.                                            F0786004  525
      5.542       107.                                            F0786004  526
      5.552       101.                                            F0786004  527
      5.561       96.6                                            F0786004  528
      5.571       94.1                                            F0786004  529
      5.581       92.0                                            F0786004  530
      5.591       91.1                                            F0786004  531
      5.601       91.3                                            F0786004  532
      5.611       91.8                                            F0786004  533
      5.621       94.0                                            F0786004  534
      5.631       97.3                                            F0786004  535
      5.641       100.                                            F0786004  536
      5.651       107.                                            F0786004  537
      5.662       115.                                            F0786004  538
      5.671       127.                                            F0786004  539
      5.681       142.                                            F0786004  540
      5.691       163.                                            F0786004  541
      5.701       182.                                            F0786004  542
      5.711       204.                                            F0786004  543
      5.721       227.                                            F0786004  544
      5.731       247.                                            F0786004  545
      5.740       254.                                            F0786004  546
      5.750       256.                                            F0786004  547
      5.760       252.                                            F0786004  548
      5.770       245.                                            F0786004  549
      5.779       235.                                            F0786004  550
      5.789       228.                                            F0786004  551
      5.799       223.                                            F0786004  552
      5.809       219.                                            F0786004  553
      5.819       218.                                            F0786004  554
      5.829       219.                                            F0786004  555
      5.839       220.                                            F0786004  556
      5.850       224.                                            F0786004  557
      5.860       230.                                            F0786004  558
      5.870       236.                                            F0786004  559
      5.880       244.                                            F0786004  560
      5.889       265.                                            F0786004  561
      5.899       291.                                            F0786004  562
      5.909       346.                                            F0786004  563
      5.919       389.                                            F0786004  564
      5.929       389.                                            F0786004  565
      5.939       366.                                            F0786004  566
      5.939       401.                                            F0786004  567
      5.948       363.                                            F0786004  568
      5.958       326.                                            F0786004  569
      5.968       272.                                            F0786004  570
      5.978       254.                                            F0786004  571
      5.988       228.                                            F0786004  572
      5.997       209.                                            F0786004  573
      6.007       196.                                            F0786004  574
      6.018       196.                                            F0786004  575
      6.028       208.                                            F0786004  576
      6.038       214.                                            F0786004  577
      6.048       235.                                            F0786004  578
      6.058       296.                                            F0786004  579
      6.068       411.                                            F0786004  580
      6.079       564.                                            F0786004  581
      6.088       628.                                            F0786004  582
      6.098       565.                                            F0786004  583
      6.106       466.                                            F0786004  584
      6.116       399.                                            F0786004  585
      6.126       357.                                            F0786004  586
      6.136       312.                                            F0786004  587
      6.146       280.                                            F0786004  588
      6.157       268.                                            F0786004  589
      6.167       259.                                            F0786004  590
      6.177       263.                                            F0786004  591
      6.187       258.                                            F0786004  592
      6.197       266.                                            F0786004  593
      6.207       267.                                            F0786004  594
      6.216       271.                                            F0786004  595
      6.226       266.                                            F0786004  596
      6.236       265.                                            F0786004  597
      6.246       260.                                            F0786004  598
      6.256       267.                                            F0786004  599
      6.266       274.                                            F0786004  600
      6.276       284.                                            F0786004  601
      6.286       301.                                            F0786004  602
      6.296       314.                                            F0786004  603
      6.306       326.                                            F0786004  604
      6.316       349.                                            F0786004  605
      6.325       356.                                            F0786004  606
      6.335       352.                                            F0786004  607
      6.345       358.                                            F0786004  608
      6.355       344.                                            F0786004  609
      6.365       337.                                            F0786004  610
      6.375       322.                                            F0786004  611
      6.385       308.                                            F0786004  612
      6.395       296.                                            F0786004  613
      6.405       273.                                            F0786004  614
      6.415       261.                                            F0786004  615
      6.425       255.                                            F0786004  616
      6.435       246.                                            F0786004  617
      6.444       243.                                            F0786004  618
      6.454       244.                                            F0786004  619
      6.464       246.                                            F0786004  620
      6.474       245.                                            F0786004  621
      6.484       240.                                            F0786004  622
      6.494       241.                                            F0786004  623
      6.504       243.                                            F0786004  624
      6.514       244.                                            F0786004  625
      6.524       245.                                            F0786004  626
      6.534       244.                                            F0786004  627
      6.544       240.                                            F0786004  628
      6.553       244.                                            F0786004  629
      6.563       250.                                            F0786004  630
      6.573       241.                                            F0786004  631
      6.583       243.                                            F0786004  632
      6.593       245.                                            F0786004  633
      6.603       246.                                            F0786004  634
      6.613       245.                                            F0786004  635
      6.623       243.                                            F0786004  636
      6.633       246.                                            F0786004  637
      6.643       250.                                            F0786004  638
      6.653       252.                                            F0786004  639
      6.662       254.                                            F0786004  640
      6.672       259.                                            F0786004  641
      6.682       258.                                            F0786004  642
      6.692       264.                                            F0786004  643
      6.702       268.                                            F0786004  644
      6.712       273.                                            F0786004  645
      6.722       279.                                            F0786004  646
      6.732       287.                                            F0786004  647
      6.752       307.                                            F0786004  648
      6.771       329.                                            F0786004  649
      6.791       353.                                            F0786004  650
      6.811       392.                                            F0786004  651
      6.831       438.                                            F0786004  652
      6.851       469.                                            F0786004  653
      6.871       468.                                            F0786004  654
      6.890       430.                                            F0786004  655
      6.910       416.                                            F0786004  656
      6.930       409.                                            F0786004  657
      6.950       437.                                            F0786004  658
      6.970       427.                                            F0786004  659
      6.989       437.                                            F0786004  660
      7.009       439.                                            F0786004  661
      7.029       447.                                            F0786004  662
      7.049       421.                                            F0786004  663
      7.069       398.                                            F0786004  664
      7.089       418.                                            F0786004  665
      7.098       457.                                            F0786004  666
      7.109       531.                                            F0786004  667
      7.109       507.                                            F0786004  668
      7.118       455.                                            F0786004  669
      7.128       410.                                            F0786004  670
      7.148       396.                                            F0786004  671
      7.168       382.                                            F0786004  672
      7.188       385.                                            F0786004  673
      7.207       373.                                            F0786004  674
      7.227       369.                                            F0786004  675
      7.247       374.                                            F0786004  676
      7.267       376.                                            F0786004  677
      7.287       381.                                            F0786004  678
      7.307       411.                                            F0786004  679
      7.326       438.                                            F0786004  680
      7.346       441.                                            F0786004  681
      7.366       454.                                            F0786004  682
      7.386       445.                                            F0786004  683
      7.406       456.                                            F0786004  684
      7.427       484.                                            F0786004  685
      7.445       502.                                            F0786004  686
      7.465       500.                                            F0786004  687
      7.485       509.                                            F0786004  688
      7.505       498.                                            F0786004  689
      7.525       498.                                            F0786004  690
      7.544       491.                                            F0786004  691
      7.564       450.                                            F0786004  692
      7.584       431.                                            F0786004  693
      7.605       430.                                            F0786004  694
      7.625       452.                                            F0786004  695
      7.645       499.                                            F0786004  696
      7.664       555.                                            F0786004  697
      7.684       613.                                            F0786004  698
      7.704       680.                                            F0786004  699
      7.724       691.                                            F0786004  700
      7.744       664.                                            F0786004  701
      7.763       638.                                            F0786004  702
      7.783       614.                                            F0786004  703
      7.803       592.                                            F0786004  704
      7.823       596.                                            F0786004  705
      7.843       595.                                            F0786004  706
      7.863       599.                                            F0786004  707
      7.882       622.                                            F0786004  708
      7.902       640.                                            F0786004  709
      7.922       583.                                            F0786004  710
      7.941       501.                                            F0786004  711
      7.962       458.                                            F0786004  712
ENDDATA            681                                            F0786004  713
ENDSUBENT          712                                            F078600499999
ENDENTRY             2                                            F078699999999
ENDREQUEST           1                                            Z999999999999
